wavelength, reflectance
389.63,0.213
390.95,0.213
392.27,0.213
393.58,0.213
394.9,0.213
396.22,0.213
397.54,0.213
398.86,0.213
400.17,0.213
401.49,0.213
402.81,0.213
404.13,0.213
405.45,0.213
406.77,0.214
408.08,0.214
409.4,0.214
410.72,0.214
412.04,0.214
413.36,0.214
414.68,0.214
416,0.214
417.32,0.214
418.64,0.214
419.96,0.214
421.28,0.215
422.6,0.215
423.92,0.215
425.24,0.215
426.56,0.215
427.88,0.215
429.2,0.215
430.52,0.215
431.84,0.215
433.16,0.215
434.48,0.216
435.8,0.216
437.12,0.216
438.44,0.216
439.76,0.216
441.08,0.216
442.4,0.216
443.72,0.216
445.04,0.216
446.37,0.216
447.69,0.216
449.01,0.217
450.33,0.217
451.65,0.217
452.97,0.217
454.3,0.217
455.62,0.217
456.94,0.217
458.26,0.217
459.58,0.217
460.91,0.217
462.23,0.218
463.55,0.218
464.87,0.218
466.2,0.218
467.52,0.218
468.84,0.218
470.17,0.218
471.49,0.218
472.81,0.218
474.14,0.219
475.46,0.219
476.78,0.219
478.11,0.219
479.43,0.219
480.75,0.219
482.08,0.219
483.4,0.219
484.73,0.219
486.05,0.219
487.37,0.22
488.7,0.22
490.02,0.22
491.35,0.22
492.67,0.22
494,0.22
495.32,0.22
496.65,0.22
497.97,0.22
499.3,0.221
500.62,0.221
501.95,0.221
503.27,0.221
504.6,0.221
505.92,0.221
507.25,0.221
508.58,0.222
509.9,0.222
511.23,0.222
512.55,0.222
513.88,0.222
515.21,0.222
516.53,0.223
517.86,0.223
519.19,0.223
520.51,0.223
521.84,0.223
523.17,0.223
524.49,0.223
525.82,0.224
527.15,0.224
528.47,0.224
529.8,0.224
531.13,0.224
532.46,0.224
533.78,0.225
535.11,0.225
536.44,0.225
537.77,0.225
539.09,0.225
540.42,0.225
541.75,0.225
543.08,0.226
544.41,0.226
545.74,0.226
547.06,0.226
548.39,0.226
549.72,0.226
551.05,0.227
552.38,0.227
553.71,0.227
555.04,0.227
556.37,0.227
557.69,0.227
559.02,0.227
560.35,0.227
561.68,0.228
563.01,0.228
564.34,0.228
565.67,0.228
567,0.228
568.33,0.228
569.66,0.228
570.99,0.228
572.32,0.229
573.65,0.229
574.98,0.229
576.31,0.229
577.64,0.229
578.98,0.229
580.31,0.229
581.64,0.229
582.97,0.23
584.3,0.23
585.63,0.23
586.96,0.23
588.29,0.23
589.62,0.23
590.96,0.23
592.29,0.23
593.62,0.231
594.95,0.231
596.28,0.231
597.62,0.231
598.95,0.231
600.28,0.231
601.61,0.231
602.94,0.231
604.28,0.232
605.61,0.232
606.94,0.232
608.28,0.232
609.61,0.232
610.94,0.232
612.27,0.232
613.61,0.232
614.94,0.233
616.27,0.233
617.61,0.233
618.94,0.233
620.27,0.233
621.61,0.233
622.94,0.233
624.28,0.234
625.61,0.234
626.94,0.234
628.28,0.234
629.61,0.234
630.95,0.234
632.28,0.234
633.62,0.234
634.95,0.235
636.29,0.235
637.62,0.235
638.95,0.235
640.29,0.235
641.63,0.235
642.96,0.235
644.3,0.236
645.63,0.236
646.97,0.236
648.3,0.236
649.64,0.236
650.97,0.236
652.31,0.236
653.65,0.236
654.98,0.237
656.32,0.237
657.65,0.237
658.99,0.237
660.33,0.237
661.66,0.237
663,0.237
664.34,0.238
665.67,0.238
667.01,0.238
668.35,0.238
669.68,0.238
671.02,0.238
672.36,0.238
673.7,0.238
675.03,0.239
676.37,0.239
677.71,0.239
679.05,0.239
680.38,0.239
681.72,0.239
683.06,0.239
684.4,0.24
685.74,0.24
687.08,0.24
688.41,0.24
689.75,0.24
691.09,0.24
692.43,0.24
693.77,0.24
695.11,0.241
696.45,0.241
697.78,0.241
699.12,0.241
700.46,0.241
701.8,0.241
703.14,0.241
704.48,0.242
705.82,0.242
707.16,0.242
708.5,0.242
709.84,0.242
711.18,0.242
712.52,0.242
713.86,0.242
715.2,0.242
716.54,0.243
717.88,0.243
719.22,0.243
720.56,0.243
721.9,0.243
723.24,0.243
724.59,0.243
725.93,0.243
727.27,0.244
728.61,0.244
729.95,0.244
731.29,0.244
732.63,0.244
733.97,0.244
735.32,0.244
736.66,0.244
738,0.245
739.34,0.245
740.68,0.245
742.03,0.245
743.37,0.245
744.71,0.245
746.05,0.245
747.4,0.245
748.74,0.246
750.08,0.246
751.42,0.246
752.77,0.246
754.11,0.246
755.45,0.246
756.8,0.246
758.14,0.246
759.48,0.246
760.83,0.247
762.17,0.247
763.51,0.247
764.86,0.247
766.2,0.247
767.54,0.247
768.89,0.247
770.23,0.247
771.58,0.248
772.92,0.248
774.27,0.248
775.61,0.248
776.96,0.248
778.3,0.248
779.64,0.248
780.99,0.248
782.33,0.248
783.68,0.249
785.02,0.249
786.37,0.249
787.72,0.249
789.06,0.249
790.41,0.249
791.75,0.249
793.1,0.249
794.44,0.249
795.79,0.25
797.13,0.25
798.48,0.25
799.83,0.25
801.17,0.25
802.52,0.25
803.87,0.25
805.21,0.251
806.56,0.251
807.91,0.251
809.25,0.251
810.6,0.251
811.95,0.252
813.29,0.252
814.64,0.252
815.99,0.252
817.34,0.252
818.68,0.252
820.03,0.253
821.38,0.253
822.73,0.253
824.07,0.253
825.42,0.253
826.77,0.253
828.12,0.254
829.47,0.254
830.81,0.254
832.16,0.254
833.51,0.254
834.86,0.255
836.21,0.255
837.56,0.255
838.91,0.255
840.26,0.255
841.6,0.255
842.95,0.256
844.3,0.256
845.65,0.256
847,0.256
848.35,0.256
849.7,0.257
851.05,0.257
852.4,0.257
853.75,0.257
855.1,0.257
856.45,0.257
857.8,0.257
859.15,0.257
860.5,0.257
861.85,0.257
863.2,0.257
864.55,0.257
865.9,0.258
867.26,0.258
868.61,0.258
869.96,0.258
871.31,0.258
872.66,0.258
874.01,0.258
875.36,0.258
876.71,0.258
878.07,0.258
879.42,0.258
880.77,0.258
882.12,0.258
883.47,0.259
884.82,0.259
886.18,0.259
887.53,0.259
888.88,0.259
890.23,0.259
891.59,0.259
892.94,0.259
894.29,0.259
895.64,0.259
897,0.259
898.35,0.259
899.7,0.259
901.06,0.26
902.41,0.26
903.76,0.26
905.12,0.26
906.47,0.26
907.82,0.26
909.18,0.26
910.53,0.26
911.89,0.261
913.24,0.261
914.59,0.261
915.95,0.261
917.3,0.261
918.66,0.261
920.01,0.261
921.37,0.261
922.72,0.262
924.08,0.262
925.43,0.262
926.79,0.262
928.14,0.262
929.5,0.262
930.85,0.262
932.21,0.262
933.56,0.263
934.92,0.263
936.27,0.263
937.63,0.263
938.98,0.263
940.34,0.263
941.7,0.263
943.05,0.263
944.41,0.264
945.76,0.264
947.12,0.264
948.48,0.264
949.83,0.264
951.19,0.264
952.55,0.264
953.9,0.264
955.26,0.265
956.62,0.265
957.98,0.265
959.33,0.265
960.69,0.265
962.05,0.265
963.4,0.265
964.76,0.265
966.12,0.266
967.48,0.266
968.84,0.266
970.19,0.266
971.55,0.266
972.91,0.266
974.27,0.266
975.63,0.266
976.98,0.266
978.34,0.267
979.7,0.267
981.06,0.267
982.42,0.267
983.78,0.267
985.14,0.267
986.5,0.267
987.86,0.267
989.22,0.268
990.57,0.268
991.93,0.268
993.29,0.268
994.65,0.268
996.01,0.268
997.37,0.268
998.73,0.268
1000.09,0.269
1001.45,0.269
1002.81,0.269
1004.17,0.269
1005.53,0.269
1006.89,0.269
